 C5H10O           Molecular weight = 86.134

 Heat of formation at 298K =  -57.977 (kcal/mol)

 B =   0.115 cm?1     Symmetric number =  1

 Internal rotation
 ===================================================
  No      Br       sigma    dim      Vr(kcal/mol)
 ===================================================


 Vibrational Frequencies (cm^-1)
 -------------------------------
         78.
        165.
        186.
        230.
        255.
        337.
        366.
        424.
        680.
        715.
        825.
        901.
        933.
        969.
        974.
        997.
       1143.
       1161.
       1193.
       1256.
       1312.
       1364.
       1389.
       1403.
       1416.
       1423.
       1445.
       1491.
       1497.
       1507.
       1517.
       1812.
       2851.
       2989.
       3009.
       3014.
       3018.
       3032.
       3073.
       3080.
       3086.
       3113.
 -------------------------------


1
   T(K)       Cp(cal/mol/K)   S(cal/mol/K)  [H(T)-H(298K)](kcal/mol)
 -----------------------------------------------------------------
   50.00          0.000          0.000            -4.887
  100.00         14.559         60.888            -4.234
  200.00         21.380         73.183            -2.422
  298.15         28.144         82.946             0.000
  300.00         28.280         83.120             0.052
  350.00         32.021         87.760             1.559
  400.00         35.748         92.280             3.254
  450.00         39.334         96.699             5.132
  500.00         42.710        101.020             7.184
  500.00         42.710        101.020             7.184
  550.00         45.851        105.240             9.399
  600.00         48.759        109.356            11.765
  650.00         51.447        113.366            14.271
  700.00         53.933        117.271            16.906
  750.00         56.236        121.072            19.661
  800.00         58.370        124.770            22.527
  850.00         60.351        128.369            25.496
  900.00         62.191        131.871            28.560
  950.00         63.900        135.280            31.713
 1000.00         65.490        138.599            34.948
 1100.00         68.342        144.977            41.643
 1200.00         70.812        151.033            48.604
 1300.00         72.954        156.787            55.795
 1400.00         74.814        162.263            63.185
 1500.00         76.433        167.481            70.749
 1600.00         77.847        172.460            78.465
 1700.00         79.084        177.218            86.313
 1800.00         80.172        181.770            94.277
 1900.00         81.131        186.130           102.343
 2000.00         81.978        190.314           110.499
 2100.00         82.731        194.332           118.735
 2200.00         83.401        198.197           127.043
 2300.00         84.000        201.917           135.413
 2400.00         84.537        205.504           143.840
 2500.00         85.019        208.965           152.319
 2600.00         85.454        212.308           160.843
 2700.00         85.848        215.541           169.408
 2800.00         86.205        218.669           178.011
 2900.00         86.530        221.700           186.648
 3000.00         86.825        224.639           195.316
 -----------------------------------------------------------------
1
 High temperature

     Input value
     ------------


 No.Points =   20    Gas constant=      1.9871     Enthalpy of formation=   -57.9771



 Cpo at To=        65.490     H-H298 at To=     34947.996     Sto at To=       138.599






     TEMP.          H-H298          Pred/Correct          Sto          Pred/Correct          Cpo          Pred/Correct
     -----          ------          ------------          ---          ------------          ---          ------------

       1100.0      41643.0313             0.9998          144.9775           1.0000           68.3425           0.9983
       1200.0      48603.7305             0.9996          151.0325           0.9999           70.8124           0.9979
       1300.0      55794.5664             0.9994          156.7871           0.9998           72.9537           0.9983
       1400.0      63185.1016             0.9993          162.2632           0.9998           74.8136           0.9990
       1500.0      70749.2813             0.9993          167.4813           0.9998           76.4329           0.9998
       1600.0      78464.8359             0.9994          172.4604           0.9998           77.8465           1.0005
       1700.0      86312.7266             0.9995          177.2177           0.9998           79.0844           1.0011
       1800.0      94276.7031             0.9997          181.7695           0.9998           80.1719           1.0014
       1900.0     102342.8125             0.9998          186.1304           0.9999           81.1305           1.0015
       2000.0     110499.1172             0.9999          190.3139           0.9999           81.9784           1.0014
       2100.0     118735.3359             1.0000          194.3322           0.9999           82.7310           1.0010
       2200.0     127042.5703             1.0001          198.1966           1.0000           83.4011           1.0006
       2300.0     135413.1719             1.0001          201.9174           1.0000           83.9999           1.0001
       2400.0     143840.4844             1.0001          205.5039           1.0000           84.5366           0.9996
       2500.0     152318.7031             1.0000          208.9648           0.9999           85.0192           0.9992
       2600.0     160842.7500             1.0000          212.3080           0.9999           85.4544           0.9989
       2700.0     169408.1875             0.9999          215.5405           0.9999           85.8480           0.9990
       2800.0     178011.1094             0.9999          218.6692           0.9999           86.2049           0.9993
       2900.0     186648.1094             0.9999          221.7000           0.9999           86.5295           1.0001
       3000.0     195316.0625             0.9999          224.6385           0.9999           86.8255           1.0015
     -----------------------------------------------------------------------------------------------------------------




     Least square coefficients
     -------------------------
     A(1)=  0.79173026E+01

     A(2)=  0.37942652E-01

     A(3)= -0.15506186E-04

     A(4)=  0.27640137E-08

     A(5)= -0.16124450E-12

     A6=-0.33967645E+05

     A7=-0.16013935E+02

     Lambdao= 0.20730957E+00

     Lambda1= 0.69511361E-01

     Lambda2= 0.21212161E+00


     -----------------------------------------------------------------------------------------------------------------
     NER= 1
     -----------------------------------------------------------------------------------------------------------------
1
     1100. K to     3000. K
 0.79173026E+01 0.37942652E-01-0.15506186E-04 0.27640137E-08-0.16124450E-12
-0.33967645E+05-0.16013935E+02
                               0.79173026E+01 0.37942652E-01-0.15506186E-04
 0.27640137E-08-0.16124450E-12-0.33967645E+05-0.16013935E+02



 Low temperature


     Input value
     ------------


 No.Points =   15    Gas constant=      1.9871     Enthalpy of formation=   -57.9771



 Cpo at To=        65.490     H-H298 at To=     34947.996     Sto at To=       138.599






     TEMP.          H-H298          Pred/Correct          Sto          Pred/Correct          Cpo          Pred/Correct
     -----          ------          ------------          ---          ------------          ---          ------------

        300.0         52.1921             0.9635           83.1203           0.9999           28.2800           0.9980
        350.0       1559.4370             0.9994           87.7598           0.9999           32.0210           1.0020
        400.0       3254.0288             1.0007           92.2798           1.0000           35.7480           1.0013
        450.0       5131.8511             1.0006           96.6992           1.0001           39.3340           0.9999
        500.0       7183.9028             1.0003          101.0202           1.0000           42.7100           0.9992
        500.0       7183.9028             1.0003          101.0202           1.0000           42.7100           0.9992
        550.0       9398.9209             1.0000          105.2401           1.0000           45.8512           0.9993
        600.0      11765.1240             0.9999          109.3560           1.0000           48.7590           0.9997
        650.0      14271.1582             1.0000          113.3663           1.0000           51.4472           1.0003
        700.0      16906.4766             1.0000          117.2712           1.0000           53.9334           1.0006
        750.0      19661.4336             1.0001          121.0717           1.0000           56.2356           1.0007
        800.0      22527.2441             1.0002          124.7701           1.0000           58.3700           1.0004
        850.0      25495.8789             1.0002          128.3689           1.0000           60.3508           0.9999
        900.0      28559.9785             1.0001          131.8712           1.0000           62.1906           0.9995
        950.0      31712.7676             1.0000          135.2800           1.0000           63.9002           0.9994
     -----------------------------------------------------------------------------------------------------------------




     Least square coefficients
     -------------------------
     A(1)=  0.19823347E+01

     A(2)=  0.39042115E-01

     A(3)=  0.17041562E-04

     A(4)= -0.43489923E-07

     A(5)=  0.18380452E-10

     A6=-0.31576520E+05

     A7= 0.18392593E+02

     Lambdao= 0.21405056E-01

     Lambda1=-0.20507619E-01

     Lambda2=-0.61304290E-02


     -----------------------------------------------------------------------------------------------------------------
     NER= 1
     -----------------------------------------------------------------------------------------------------------------
1
      300. K to      950. K
 0.19823347E+01 0.39042115E-01 0.17041562E-04-0.43489923E-07 0.18380452E-10
-0.31576520E+05 0.18392593E+02
                               0.19823347E+01 0.39042115E-01 0.17041562E-04
-0.43489923E-07 0.18380452E-10-0.31576520E+05 0.18392593E+02
